File: 数据/xrd/望军4个xrd10分钟-03.22/cnt-fe3o4_Theta_2-Theta.TXT
Sample
Comments
Filename	G:\ceshi\20230223\wangjun410-03.22\cnt-fe3o4_Theta_2-Theta.raw

Goniometer	MiniFlex 300/600
Attachment	Air-sensitive Sample Holder
Monochromater	None

X	0
Y	0
Z	0
10	600
10.28	600
10.56	600
10.84	225
11.12	150
11.4	375
11.68	375
11.96	150
12.24	300
12.52	375
12.8	225
13.08	450
13.36	375
13.64	300
13.92	300
14.2	525
14.48	450
14.76	450
15.04	450
15.32	450
15.6	300
15.88	600
16.16	675
16.44	450
16.72	825
17	825
17.28	825
17.56	750
17.84	525
18.12	1125
18.4	1050
18.68	1050
18.96	1050
19.24	1425
19.52	1125
19.8	1725
20.08	1125
20.36	1500
20.64	1275
20.92	1050
21.2	1200
21.48	1350
21.76	1950
22.04	1650
22.32	1575
22.6	975
22.88	1725
23.16	2925
23.44	975
23.72	1800
24	1275
24.28	1350
24.56	900
24.84	1200
25.12	1200
25.4	750
25.68	1275
25.96	1500
26.24	825
26.52	1200
26.8	975
27.08	1050
27.36	900
27.64	900
27.92	1425
28.2	900
28.48	375
28.76	825
29.04	1050
29.32	750
29.6	525
29.88	375
30.16	675
30.44	675
30.72	525
31	1125
31.28	900
31.56	600
31.84	375
32.12	825
32.4	375
32.68	525
32.96	975
33.24	600
33.52	600
33.8	375
34.08	225
34.36	525
34.64	600
34.92	975
35.2	450
35.48	825
35.76	375
36.04	750
36.32	525
36.6	600
36.88	600
37.16	375
37.44	375
37.72	450
38	900
38.28	300
38.56	150
38.84	600
39.12	300
39.4	600
39.68	600
39.96	375
40.24	375
40.52	675
40.8	225
41.08	825
41.36	525
41.64	225
41.92	450
42.2	525
42.48	525
42.76	600
43.04	75
43.32	375
43.6	300
43.88	600
44.16	675
44.44	675
44.72	300
45	300
45.28	450
45.56	525
45.84	150
46.12	375
46.4	450
46.68	600
46.96	525
47.24	75
47.52	525
47.8	450
48.08	225
48.36	450
48.64	300
48.92	525
49.2	300
49.48	225
49.76	525
50.04	450
50.32	675
50.6	375
50.88	150
51.16	300
51.44	225
51.72	300
52	0
52.28	150
52.56	300
52.84	300
53.12	600
53.4	375
53.68	450
53.96	300
54.24	375
54.52	525
54.8	225
55.08	525
55.36	450
55.64	750
55.92	75
56.2	225
56.48	375
56.76	675
57.04	300
57.32	300
57.6	75
57.88	150
58.16	225
58.44	450
58.72	525
59	225
59.28	150
59.56	300
59.84	600
60.12	300
60.4	300
60.68	375
60.96	525
61.24	225
61.52	225
61.8	450
62.08	525
62.36	300
62.64	600
62.92	375
63.2	375
63.48	300
63.76	300
64.04	375
64.32	300
64.6	375
64.88	225
65.16	450
65.44	450
65.72	600
66	150
66.28	225
66.56	600
66.84	450
67.12	150
67.4	600
67.68	450
67.96	525
68.24	525
68.52	300
68.8	300
69.08	225
69.36	900
69.64	150
69.92	300
70.2	450
70.48	75
70.76	450
71.04	300
71.32	450
71.6	525
71.88	525
72.16	300
72.44	225
72.72	675
73	300
73.28	450
73.56	600
73.84	375
74.12	150
74.4	225
74.68	225
74.96	375
75.24	300
75.52	375
75.8	375
76.08	525
76.36	150
76.64	150
76.92	525
77.2	150
77.48	600
77.76	150
78.04	300
78.32	450
78.6	375
78.88	300
79.16	450
79.44	150
79.72	525
80	600
80.28	300
80.56	225
80.84	300
81.12	300
81.4	300
81.68	225
81.96	150
82.24	300
82.52	150
82.8	225
83.08	375
83.36	450
83.64	150
83.92	150
84.2	225
84.48	225
84.76	375
85.04	0
85.32	225
85.6	225
85.88	225
86.16	300
86.44	225
86.72	225
87	375
87.28	300
87.56	150
87.84	300
88.12	150
88.4	75
88.68	225
88.96	0
89.24	75
89.52	225
89.8	300
90	225