File: 数据/xrd/望军4个xrd10分钟-03.22/cnt-s_Theta_2-Theta.TXT
Sample
Comments
Filename	G:\ceshi\20230223\wangjun410-03.22\cnt-s_Theta_2-Theta.raw

Goniometer	MiniFlex 300/600
Attachment	Air-sensitive Sample Holder
Monochromater	None

X	0
Y	0
Z	0
10	375
10.28	750
10.56	450
10.84	300
11.12	750
11.4	525
11.68	300
11.96	675
12.24	375
12.52	900
12.8	900
13.08	600
13.36	675
13.64	600
13.92	750
14.2	450
14.48	525
14.76	975
15.04	750
15.32	900
15.6	300
15.88	525
16.16	900
16.44	525
16.72	900
17	975
17.28	975
17.56	750
17.84	975
18.12	1275
18.4	600
18.68	675
18.96	450
19.24	750
19.52	825
19.8	975
20.08	2100
20.36	1200
20.64	1500
20.92	1050
21.2	1650
21.48	1125
21.76	975
22.04	1200
22.32	1800
22.6	1725
22.88	2250
23.16	2775
23.44	1575
23.72	1575
24	1350
24.28	1875
24.56	1275
24.84	900
25.12	750
25.4	825
25.68	2175
25.96	2325
26.24	1275
26.52	1350
26.8	975
27.08	750
27.36	825
27.64	1875
27.92	975
28.2	975
28.48	675
28.76	825
29.04	1200
29.32	750
29.6	900
29.88	675
30.16	375
30.44	600
30.72	750
31	525
31.28	825
31.56	375
31.84	375
32.12	675
32.4	600
32.68	375
32.96	450
33.24	675
33.52	375
33.8	525
34.08	1050
34.36	525
34.64	525
34.92	750
35.2	825
35.48	825
35.76	450
36.04	1275
36.32	525
36.6	600
36.88	975
37.16	450
37.44	225
37.72	525
38	600
38.28	300
38.56	150
38.84	450
39.12	225
39.4	375
39.68	225
39.96	375
40.24	600
40.52	450
40.8	600
41.08	450
41.36	375
41.64	300
41.92	150
42.2	675
42.48	225
42.76	525
43.04	750
43.32	150
43.6	300
43.88	675
44.16	525
44.44	375
44.72	600
45	375
45.28	525
45.56	825
45.84	75
46.12	375
46.4	225
46.68	450
46.96	450
47.24	375
47.52	450
47.8	450
48.08	450
48.36	525
48.64	300
48.92	300
49.2	225
49.48	525
49.76	600
50.04	525
50.32	300
50.6	750
50.88	300
51.16	450
51.44	75
51.72	300
52	525
52.28	450
52.56	225
52.84	300
53.12	450
53.4	300
53.68	375
53.96	600
54.24	525
54.52	450
54.8	450
55.08	225
55.36	450
55.64	225
55.92	675
56.2	600
56.48	300
56.76	375
57.04	300
57.32	300
57.6	525
57.88	525
58.16	450
58.44	300
58.72	300
59	300
59.28	300
59.56	150
59.84	300
60.12	225
60.4	300
60.68	225
60.96	300
61.24	225
61.52	375
61.8	450
62.08	150
62.36	150
62.64	300
62.92	450
63.2	375
63.48	450
63.76	300
64.04	450
64.32	225
64.6	375
64.88	300
65.16	75
65.44	375
65.72	525
66	375
66.28	225
66.56	825
66.84	150
67.12	675
67.4	225
67.68	375
67.96	225
68.24	225
68.52	75
68.8	525
69.08	150
69.36	375
69.64	150
69.92	225
70.2	375
70.48	300
70.76	225
71.04	375
71.32	450
71.6	300
71.88	525
72.16	375
72.44	225
72.72	450
73	375
73.28	225
73.56	225
73.84	300
74.12	150
74.4	150
74.68	375
74.96	150
75.24	150
75.52	0
75.8	75
76.08	75
76.36	75
76.64	300
76.92	225
77.2	300
77.48	225
77.76	375
78.04	300
78.32	450
78.6	225
78.88	225
79.16	150
79.44	225
79.72	150
80	525
80.28	225
80.56	225
80.84	150
81.12	375
81.4	225
81.68	300
81.96	225
82.24	225
82.52	150
82.8	225
83.08	75
83.36	225
83.64	150
83.92	150
84.2	600
84.48	75
84.76	600
85.04	450
85.32	225
85.6	525
85.88	150
86.16	225
86.44	225
86.72	75
87	225
87.28	75
87.56	150
87.84	225
88.12	150
88.4	150
88.68	75
88.96	150
89.24	375
89.52	375
89.8	375
90	300