File: 数据/xrd/望军4个xrd10分钟-03.22/cnt-s_Theta_2-Theta.asc
*TYPE		=  Raw
*CLASS		=  ASCII CLASS
*SAMPLE		=
*COMMENT	=
*FNAME		=  cnt-s_Theta_2-Theta.asc
*DATE		=  24-Mar-23 00:28

*GROUP_COUNT	=  1
*GONIO		=  MiniFlex 300/600, 150
*ATTACHMENT	=  Air-sensitive Sample Holder
*ASC		=  0, 0, 0.000000, 0.000000
*FILTER		=  K-beta(x1.5)
*C_MONOCHRO	=  None, 0.000000
*SLIT_NAME	=  0, IHS
*SLIT_NAME	=  1, DS
*SLIT_NAME	=  2, SS
*SLIT_NAME	=  3, RS
*COUNTER	=  D/teX Ultra2, 0
*POS_FORMAT	=  0
*SCAN_AXIS	=  2theta/theta
*MEAS_MODE	=  Continuous Scanning
*TARGET		=  29
*XRAY_CHAR	=  K-ALPHA
*WAVE_LENGTH1	=  1.54059
*WAVE_LENGTH2	=  1.54441
*THICKNESS	=  0, 0.000000
*MU		=  0, 0.000000
*SCAN_MODE	=  2theta/theta
*SPEED_DIM	=  sec./step
*XUNIT		=  deg.
*YUNIT		=  cps
*SCALE_MODE	=  1
*REP_COUNT	=  0
*SE_COUNT	=  0
*STD_MATERIAL	=  Unknown, Unknown, 0.000000, 0.000000, 0.000000, 0.000000, 0.000000, 0.000000
*LATT_CONS	=  0, Unknown, Unknown, 0.000000, 0.000000, 0.000000, 0.000000, 0.000000, 0.000000
*SEC_COUNT	=  1
*TSPEC_SIZE	=  0
*EXTRA_SIZE	=  0
*MEMO		=

*BEGIN
*GROUP		=  0
*START		=  10
*STOP		=  90
*STEP		=  0.02
*OFFSET		=  0.000000
*SPEED		=  0.0133333
*SLIT_SPEC	=  0, 10.0mm, 10, 0.000000
*SLIT_SPEC	=  1, 1.250deg, 1.25, 0.000000
*SLIT_SPEC	=  2, 8.0mm, 8, 0.000000
*SLIT_SPEC	=  3, 0.3mm, 0.3, 0.000000
*KV		=  40
*MA		=  15
*LOW		=  0.000000
*HIGH		=  0.000000
*CTEMPER	=  0, 0.000000
*CTEMPER	=  1, 0.000000
*CTEMPER	=  2, 0.000000
*PAREX		=  0, 0.000000
*PAREX		=  1, 0.000000
*PAREX		=  2, 0.000000
*PAREX		=  3, 0.000000
*PAREX		=  4, 0.000000
*PAREX		=  5, 0.000000
*PAREX		=  6, 0.000000
*PAREX		=  7, 0.000000
*PAREX		=  8, 0.000000
*PAREX		=  9, 0.000000
*PAREX		=  10, 0.000000
*PAREX		=  11, 0.000000
*PAREX		=  12, 0.000000
*PAREX		=  13, 0.000000
*PAREX		=  14, 0.000000
*PAREX		=  15, 0.000000
*FULL_SCALE	=  5940
*INDEX		=  0, 0, 0
*COUNT		=  4001
5, 6, 9, 6
6, 8, 8, 5
5, 7, 8, 10
7, 7, 7, 4
7, 3, 5, 7
6, 6, 7, 8
6, 5, 9, 4
5, 7, 9, 6
4, 1, 2, 5
6, 8, 8, 8
7, 9, 10, 8
5, 5, 8, 7
4, 2, 5, 5
4, 5, 6, 7
7, 8, 16, 7
11, 5, 12, 11
8, 8, 8, 8
8, 8, 15, 14
6, 11, 17, 13
6, 10, 10, 9
4, 4, 7, 6
12, 15, 10, 6
9, 10, 10, 13
9, 11, 10, 11
10, 12, 15, 10
13, 11, 11, 10
6, 11, 9, 10
15, 10, 9, 9
6, 9, 14, 19
13, 15, 18, 13
21, 19, 17, 13
11, 16, 12, 18
19, 22, 20, 20
19, 9, 19, 14
14, 19, 14, 9
22, 19, 16, 17
20, 23, 27, 13
18, 21, 25, 20
14, 10, 16, 17
13, 18, 18, 15
25, 26, 29, 28
39, 31, 37, 28
21, 22, 7, 17
27, 24, 27, 28
27, 20, 25, 17
20, 27, 28, 14
15, 22, 13, 16
15, 10, 15, 11
23, 23, 11, 18
29, 24, 29, 29
12, 18, 13, 15
10, 18, 12, 20
16, 21, 19, 15
9, 17, 9, 9
15, 20, 12, 13
28, 26, 25, 32
13, 13, 12, 9
9, 11, 11, 6
11, 9, 14, 20
18, 18, 21, 17
17, 11, 17, 9
14, 15, 8, 9
8, 8, 9, 11
5, 7, 13, 4
8, 9, 9, 8
4, 12, 8, 11
12, 9, 13, 6
19, 9, 12, 14
8, 4, 11, 10
5, 12, 9, 5
8, 6, 7, 8
5, 4, 6, 6
8, 3, 6, 4
12, 12, 10, 12
7, 10, 3, 10
8, 11, 10, 12
6, 9, 7, 6
7, 6, 3, 11
11, 12, 6, 7
9, 8, 5, 6
4, 8, 7, 7
6, 8, 9, 7
3, 9, 4, 4
5, 7, 8, 5
13, 16, 17, 9
3, 5, 10, 5
7, 4, 4, 6
6, 7, 10, 10
7, 7, 4, 4
7, 4, 1, 0.000000
4, 5, 6, 3
3, 5, 4, 8
4, 2, 3, 9
5, 6, 6, 9
4, 4, 6, 5
4, 5, 4, 6
8, 5, 5, 2
7, 4, 6, 7
5, 5, 6, 4
3, 7, 6, 5
1, 4, 7, 7
4, 4, 12, 7
6, 11, 9, 10
8, 6, 10, 7
4, 4, 2, 5
4, 4, 6, 4
4, 3, 4, 6
6, 3, 3, 4
6, 4, 4, 1
6, 6, 7, 8
5, 3, 9, 6
7, 6, 11, 8
1, 4, 4, 5
5, 4, 9, 7
5, 8, 3, 3
9, 11, 6, 1
4, 4, 5, 6
3, 9, 6, 5
12, 13, 6, 4
6, 8, 3, 8
6, 9, 7, 4
5, 4, 8, 2
3, 7, 4, 5
4, 6, 5, 9
2, 6, 3, 5
7, 3, 7, 6
4, 3, 6, 5
4, 1, 2, 4
3, 5, 5, 3
7, 8, 11, 7
6, 7, 15, 8
7, 3, 6, 4
5, 4, 6, 9
3, 4, 5, 6
6, 6, 8, 13
8, 6, 2, 6
5, 5, 4, 7
7, 10, 8, 8
4, 3, 0.000000, 3
5, 4, 6, 7
6, 4, 3, 3
6, 2, 5, 2
5, 4, 4, 5
6, 7, 3, 6
5, 7, 7, 6
2, 4, 3, 5
4, 3, 5, 3
4, 5, 7, 6
8, 7, 6, 4
3, 11, 6, 3
11, 5, 5, 6
3, 4, 3, 10
5, 5, 5, 4
9, 6, 4, 4
4, 2, 3, 5
1, 4, 3, 8
2, 4, 3, 5
5, 7, 5, 5
2, 2, 6, 4
3, 4, 6, 2
2, 2, 3, 4
5, 2, 5, 8
7, 9, 3, 6
5, 1, 1, 4
4, 3, 6, 2
3, 4, 5, 3
5, 5, 5, 5
4, 1, 6, 5
4, 3, 12, 8
5, 7, 4, 4
4, 2, 6, 3
8, 7, 4, 3
6, 2, 4, 8
4, 3, 8, 2
5, 4, 7, 7
5, 3, 5, 6
5, 7, 7, 4
6, 6, 3, 2
4, 6, 4, 2
1, 9, 4, 5
1, 2, 2, 1
0.000000, 2, 3, 7
3, 2, 1, 4
4, 4, 3, 3
3, 6, 4, 7
1, 2, 2, 2
2, 1, 1, 3
1, 7, 1, 1
3, 7, 5, 4
4, 3, 6, 2
3, 2, 3, 3
6, 4, 4, 6
2, 1, 2, 3
7, 2, 3, 3
6, 2, 3, 6
10, 8, 3, 7
6, 3, 4, 4
2, 3, 0.000000, 2
6, 2, 7, 5
4, 2, 5, 3
2, 7, 3, 3
2, 1, 0.000000, 2
0.000000, 5, 5, 4
2, 4, 1, 0.000000
3, 2, 5, 4
4, 3, 1, 2
4, 3, 6, 7
4, 2, 5, 6
3, 1, 2, 5
1, 3, 3, 1
4, 8, 6, 8
4, 6, 4, 5
7, 3, 3, 4
3, 5, 6, 5
7, 0.000000, 1, 4
4, 5, 3, 3
3, 4, 2, 1
3, 4, 2, 5
3, 3, 3, 2
3, 3, 3, 5
2, 1, 4, 5
0.000000, 4, 3, 3
2, 2, 1, 3
1, 2, 3, 7
4, 2, 5, 5
4, 7, 5, 4
1, 1, 4, 1
5, 6, 4, 4
3, 2, 3, 3
2, 3, 4, 2
2, 4, 2, 4
2, 3, 2, 4
3, 0.000000, 6, 2
6, 3, 1, 3
3, 4, 2, 2
4, 1, 2, 3
3, 3, 3, 2
4, 6, 2, 1
3, 4, 0.000000, 4
2, 3, 4, 6
4, 2, 3, 0.000000
2, 5, 4, 3
1, 6, 2, 2
1, 3, 2, 3
2, 2, 2, 1
2, 7, 2, 3
2, 2, 0.000000, 0.000000
4, 4, 3, 3
5, 4, 2, 3
1, 1, 8, 4
4
*END

*EOF