File: 数据/xrd/望军4个xrd10分钟-03.22/cnt-fe3o4_Theta_2-Theta.asc
*TYPE		=  Raw
*CLASS		=  ASCII CLASS
*SAMPLE		=
*COMMENT	=
*FNAME		=  cnt-fe3o4_Theta_2-Theta.asc
*DATE		=  24-Mar-23 00:30

*GROUP_COUNT	=  1
*GONIO		=  MiniFlex 300/600, 150
*ATTACHMENT	=  Air-sensitive Sample Holder
*ASC		=  0, 0, 0.000000, 0.000000
*FILTER		=  K-beta(x1.5)
*C_MONOCHRO	=  None, 0.000000
*SLIT_NAME	=  0, IHS
*SLIT_NAME	=  1, DS
*SLIT_NAME	=  2, SS
*SLIT_NAME	=  3, RS
*COUNTER	=  D/teX Ultra2, 0
*POS_FORMAT	=  0
*SCAN_AXIS	=  2theta/theta
*MEAS_MODE	=  Continuous Scanning
*TARGET		=  29
*XRAY_CHAR	=  K-ALPHA
*WAVE_LENGTH1	=  1.54059
*WAVE_LENGTH2	=  1.54441
*THICKNESS	=  0, 0.000000
*MU		=  0, 0.000000
*SCAN_MODE	=  2theta/theta
*SPEED_DIM	=  sec./step
*XUNIT		=  deg.
*YUNIT		=  cps
*SCALE_MODE	=  1
*REP_COUNT	=  0
*SE_COUNT	=  0
*STD_MATERIAL	=  Unknown, Unknown, 0.000000, 0.000000, 0.000000, 0.000000, 0.000000, 0.000000
*LATT_CONS	=  0, Unknown, Unknown, 0.000000, 0.000000, 0.000000, 0.000000, 0.000000, 0.000000
*SEC_COUNT	=  1
*TSPEC_SIZE	=  0
*EXTRA_SIZE	=  0
*MEMO		=

*BEGIN
*GROUP		=  0
*START		=  10
*STOP		=  90
*STEP		=  0.02
*OFFSET		=  0.000000
*SPEED		=  0.0133333
*SLIT_SPEC	=  0, 10.0mm, 10, 0.000000
*SLIT_SPEC	=  1, 1.250deg, 1.25, 0.000000
*SLIT_SPEC	=  2, 8.0mm, 8, 0.000000
*SLIT_SPEC	=  3, 0.3mm, 0.3, 0.000000
*KV		=  40
*MA		=  15
*LOW		=  0.000000
*HIGH		=  0.000000
*CTEMPER	=  0, 0.000000
*CTEMPER	=  1, 0.000000
*CTEMPER	=  2, 0.000000
*PAREX		=  0, 0.000000
*PAREX		=  1, 0.000000
*PAREX		=  2, 0.000000
*PAREX		=  3, 0.000000
*PAREX		=  4, 0.000000
*PAREX		=  5, 0.000000
*PAREX		=  6, 0.000000
*PAREX		=  7, 0.000000
*PAREX		=  8, 0.000000
*PAREX		=  9, 0.000000
*PAREX		=  10, 0.000000
*PAREX		=  11, 0.000000
*PAREX		=  12, 0.000000
*PAREX		=  13, 0.000000
*PAREX		=  14, 0.000000
*PAREX		=  15, 0.000000
*FULL_SCALE	=  4500
*INDEX		=  0, 0, 0
*COUNT		=  4001
8, 8, 6, 7
8, 10, 7, 4
4, 10, 1, 4
8, 7, 13, 7
5, 6, 7, 7
8, 9, 7, 7
4, 8, 2, 7
4, 4, 8, 11
11, 9, 5, 3
9, 7, 4, 2
5, 10, 10, 6
6, 5, 7, 8
5, 11, 14, 3
10, 10, 7, 7
6, 8, 8, 12
5, 8, 7, 7
6, 6, 11, 6
15, 11, 11, 9
6, 7, 6, 8
10, 10, 11, 13
10, 10, 6, 0.000000
11, 10, 10, 13
13, 11, 14, 9
11, 9, 17, 8
12, 17, 10, 16
13, 8, 10, 9
9, 10, 9, 8
19, 14, 14, 15
14, 13, 12, 12
21, 11, 12, 16
17, 23, 18, 16
14, 15, 16, 15
17, 21, 18, 20
28, 18, 14, 20
16, 15, 14, 16
16, 28, 24, 18
21, 24, 16, 9
14, 19, 24, 22
19, 21, 21, 17
18, 11, 18, 14
29, 15, 16, 26
37, 35, 39, 50
13, 15, 15, 18
15, 23, 21, 19
16, 17, 20, 18
21, 17, 18, 16
16, 15, 14, 11
15, 15, 17, 15
17, 18, 10, 11
17, 20, 10, 14
29, 26, 15, 10
10, 15, 12, 13
11, 8, 11, 17
22, 13, 10, 12
10, 11, 10, 11
15, 8, 12, 18
19, 17, 18, 9
17, 15, 11, 8
14, 15, 12, 9
10, 9, 11, 12
14, 11, 11, 10
7, 7, 11, 5
8, 7, 5, 10
9, 11, 11, 12
10, 9, 4, 5
6, 10, 8, 8
3, 6, 8, 13
11, 6, 13, 17
9, 8, 9, 6
9, 9, 11, 8
5, 7, 6, 8
13, 3, 5, 6
13, 12, 9, 7
9, 9, 7, 6
5, 5, 2, 4
10, 9, 9, 6
7, 14, 7, 8
8, 9, 5, 2
9, 6, 12, 9
5, 11, 15, 7
4, 7, 13, 14
7, 12, 13, 7
11, 8, 7, 7
3, 4, 8, 4
8, 5, 6, 12
3, 6, 5, 7
2, 10, 5, 3
7, 8, 6, 5
9, 10, 5, 6
6, 9, 10, 3
3, 4, 8, 6
4, 4, 8, 6
4, 6, 4, 6
5, 5, 2, 5
6, 4, 5, 3
2, 3, 6, 5
6, 7, 4, 5
10, 8, 11, 6
7, 4, 4, 6
4, 4, 4, 7
6, 5, 5, 5
4, 6, 6, 5
5, 7, 6, 5
8, 5, 4, 7
4, 5, 5, 6
4, 3, 7, 2
6, 3, 3, 6
7, 5, 2, 2
7, 2, 4, 3
6, 5, 6, 8
8, 2, 5, 7
6, 6, 7, 4
2, 2, 4, 2
6, 5, 8, 6
5, 3, 4, 5
6, 6, 0.000000, 4
6, 4, 5, 4
5, 4, 5, 3
2, 9, 6, 10
3, 4, 4, 7
5, 4, 2, 6
9, 9, 8, 4
5, 3, 7, 4
7, 9, 6, 3
6, 3, 8, 9
5, 11, 6, 5
9, 8, 3, 5
6, 5, 8, 5
3, 8, 7, 6
7, 6, 10, 5
7, 6, 6, 4
9, 7, 3, 1
6, 3, 2, 6
4, 6, 5, 7
5, 5, 2, 4
8, 3, 4, 7
5, 6, 5, 4
3, 2, 4, 5
4, 4, 6, 3
5, 5, 7, 8
3, 6, 0.000000, 3
8, 1, 8, 6
2, 4, 7, 8
8, 6, 2, 6
3, 4, 2, 2
1, 5, 3, 1
7, 4, 9, 5
4, 8, 10, 10
4, 3, 2, 6
4, 6, 6, 4
5, 2, 5, 4
3, 5, 6, 2
5, 4, 2, 5
6, 4, 3, 7
2, 6, 7, 7
5, 5, 2, 3
6, 3, 5, 8
4, 8, 2, 5
6, 3, 3, 8
4, 4, 6, 6
7, 3, 3, 2
3, 3, 7, 6
7, 6, 9, 7
1, 6, 3, 7
4, 6, 6, 9
2, 4, 4, 7
5, 4, 8, 7
1, 4, 4, 7
4, 2, 3, 6
6, 3, 5, 8
2, 6, 3, 6
3, 3, 3, 3
5, 5, 3, 3
10, 4, 3, 5
6, 4, 8, 9
2, 6, 4, 5
4, 5, 7, 7
4, 3, 4, 5
3, 3, 5, 4
4, 4, 5, 3
3, 6, 7, 11
6, 5, 7, 4
7, 3, 3, 2
3, 7, 7, 3
3, 1, 4, 4
5, 4, 7, 4
1, 2, 5, 3
9, 7, 10, 4
4, 4, 6, 7
1, 4, 4, 6
5, 4, 10, 1
3, 5, 4, 7
2, 3, 4, 5
7, 5, 7, 6
4, 8, 6, 3
0.000000, 3, 3, 7
9, 7, 3, 1
5, 5, 3, 5
5, 3, 4, 5
7, 5, 6, 5
4, 7, 6, 4
5, 6, 4, 4
4, 3, 3, 6
5, 5, 2, 1
5, 6, 4, 7
5, 4, 2, 4
7, 5, 3, 7
5, 3, 5, 3
12, 4, 5, 1
3, 12, 7, 4
2, 6, 1, 5
3, 5, 9, 3
4, 6, 3, 5
3, 3, 6, 2
9, 8, 8, 5
4, 5, 8, 2
6, 2, 6, 7
2, 5, 6, 8
6, 7, 5, 6
4, 5, 4, 3
5, 5, 6, 3
3, 7, 6, 6
8, 6, 3, 2
2, 3, 4, 3
3, 4, 2, 4
4, 6, 4, 5
1, 1, 6, 3
6, 3, 4, 4
5, 4, 6, 4
2, 5, 7, 3
2, 2, 2, 3
2, 3, 3, 6
4, 2, 2, 2
3, 5, 1, 0.000000
6, 4, 7, 3
3, 6, 5, 4
2, 4, 6, 2
3, 0.000000, 3, 6
4, 3, 1, 3
1, 3, 1, 4
3, 2, 4, 1
2, 3, 1, 2
4, 3, 2, 3
0.000000, 4, 3, 8
2, 5, 2, 3
1, 6, 4, 3
5, 4, 0.000000, 1
4, 3, 5, 5
4, 0.000000, 0.000000, 2
3, 2, 4, 2
3
*END

*EOF