File: 数据/xrd/望军4个xrd10分钟-03.22/fe3o4_Theta_2-Theta.TXT
Sample
Comments
Filename	G:\ceshi\20230223\wangjun410-03.22\fe3o4_Theta_2-Theta.raw

Goniometer	MiniFlex 300/600
Attachment	Air-sensitive Sample Holder
Monochromater	None

X	0
Y	0
Z	0
10	150
10.28	600
10.56	600
10.84	75
11.12	75
11.4	525
11.68	225
11.96	375
12.24	300
12.52	675
12.8	375
13.08	0
13.36	450
13.64	300
13.92	525
14.2	375
14.48	375
14.76	450
15.04	525
15.32	450
15.6	525
15.88	375
16.16	900
16.44	525
16.72	375
17	675
17.28	600
17.56	525
17.84	750
18.12	750
18.4	750
18.68	375
18.96	900
19.24	675
19.52	600
19.8	375
20.08	750
20.36	750
20.64	900
20.92	675
21.2	750
21.48	825
21.76	900
22.04	1350
22.32	600
22.6	975
22.88	675
23.16	600
23.44	675
23.72	1350
24	825
24.28	825
24.56	825
24.84	1125
25.12	750
25.4	825
25.68	450
25.96	450
26.24	675
26.52	450
26.8	975
27.08	300
27.36	825
27.64	675
27.92	375
28.2	525
28.48	225
28.76	525
29.04	450
29.32	375
29.6	300
29.88	675
30.16	750
30.44	450
30.72	450
31	525
31.28	375
31.56	375
31.84	150
32.12	300
32.4	750
32.68	900
32.96	1275
33.24	1275
33.52	750
33.8	450
34.08	375
34.36	675
34.64	600
34.92	675
35.2	450
35.48	1125
35.76	750
36.04	750
36.32	525
36.6	750
36.88	450
37.16	300
37.44	750
37.72	300
38	525
38.28	450
38.56	525
38.84	450
39.12	600
39.4	375
39.68	225
39.96	375
40.24	450
40.52	225
40.8	450
41.08	525
41.36	150
41.64	675
41.92	300
42.2	375
42.48	375
42.76	375
43.04	300
43.32	525
43.6	225
43.88	900
44.16	225
44.44	300
44.72	450
45	450
45.28	375
45.56	450
45.84	450
46.12	150
46.4	450
46.68	150
46.96	600
47.24	375
47.52	300
47.8	450
48.08	150
48.36	675
48.64	450
48.92	525
49.2	525
49.48	825
49.76	975
50.04	450
50.32	450
50.6	525
50.88	150
51.16	150
51.44	525
51.72	450
52	375
52.28	75
52.56	300
52.84	525
53.12	75
53.4	450
53.68	675
53.96	1050
54.24	600
54.52	600
54.8	300
55.08	375
55.36	225
55.64	450
55.92	600
56.2	300
56.48	375
56.76	525
57.04	525
57.32	450
57.6	600
57.88	375
58.16	225
58.44	375
58.72	375
59	600
59.28	300
59.56	375
59.84	600
60.12	675
60.4	525
60.68	375
60.96	450
61.24	300
61.52	600
61.8	150
62.08	600
62.36	450
62.64	750
62.92	300
63.2	300
63.48	600
63.76	450
64.04	900
64.32	900
64.6	150
64.88	225
65.16	225
65.44	525
65.72	600
66	375
66.28	450
66.56	375
66.84	225
67.12	300
67.4	225
67.68	300
67.96	375
68.24	300
68.52	375
68.8	525
69.08	525
69.36	225
69.64	300
69.92	525
70.2	600
70.48	300
70.76	375
71.04	600
71.32	375
71.6	600
71.88	375
72.16	675
72.44	300
72.72	600
73	75
73.28	225
73.56	300
73.84	375
74.12	525
74.4	225
74.68	375
74.96	450
75.24	300
75.52	300
75.8	450
76.08	300
76.36	375
76.64	450
76.92	375
77.2	150
77.48	450
77.76	600
78.04	150
78.32	375
78.6	375
78.88	75
79.16	375
79.44	525
79.72	75
80	375
80.28	225
80.56	450
80.84	450
81.12	525
81.4	600
81.68	300
81.96	450
82.24	375
82.52	600
82.8	375
83.08	300
83.36	600
83.64	525
83.92	225
84.2	750
84.48	525
84.76	300
85.04	450
85.32	450
85.6	300
85.88	300
86.16	300
86.44	525
86.72	225
87	600
87.28	525
87.56	375
87.84	675
88.12	150
88.4	975
88.68	600
88.96	150
89.24	600
89.52	450
89.8	375
90	225