File: 数据/xrd/望军4个xrd10分钟-03.22/zhuyetan-fe3o4_Theta_2-Theta.TXT
Sample
Comments
Filename	G:\ceshi\20230223\wangjun410-03.22\zhuyetan-fe3o4_Theta_2-Theta.raw

Goniometer	MiniFlex 300/600
Attachment	Air-sensitive Sample Holder
Monochromater	None

X	0
Y	0
Z	0
10	450
10.28	450
10.56	300
10.84	975
11.12	375
11.4	825
11.68	150
11.96	450
12.24	450
12.52	300
12.8	150
13.08	675
13.36	450
13.64	375
13.92	375
14.2	750
14.48	450
14.76	675
15.04	375
15.32	375
15.6	300
15.88	825
16.16	750
16.44	375
16.72	675
17	975
17.28	600
17.56	600
17.84	1125
18.12	600
18.4	1050
18.68	600
18.96	675
19.24	825
19.52	825
19.8	900
20.08	825
20.36	1050
20.64	1350
20.92	525
21.2	900
21.48	1200
21.76	750
22.04	525
22.32	750
22.6	1200
22.88	975
23.16	825
23.44	750
23.72	900
24	825
24.28	450
24.56	975
24.84	750
25.12	375
25.4	600
25.68	600
25.96	450
26.24	600
26.52	375
26.8	750
27.08	450
27.36	375
27.64	675
27.92	375
28.2	600
28.48	450
28.76	300
29.04	300
29.32	675
29.6	600
29.88	1125
30.16	1275
30.44	675
30.72	300
31	525
31.28	600
31.56	375
31.84	600
32.12	375
32.4	375
32.68	525
32.96	150
33.24	525
33.52	600
33.8	450
34.08	600
34.36	375
34.64	375
34.92	525
35.2	675
35.48	2850
35.76	1125
36.04	750
36.32	300
36.6	300
36.88	975
37.16	825
37.44	600
37.72	450
38	1125
38.28	225
38.56	300
38.84	600
39.12	300
39.4	150
39.68	450
39.96	675
40.24	375
40.52	300
40.8	150
41.08	375
41.36	750
41.64	225
41.92	450
42.2	750
42.48	450
42.76	675
43.04	1425
43.32	750
43.6	525
43.88	300
44.16	300
44.44	150
44.72	450
45	300
45.28	675
45.56	375
45.84	225
46.12	675
46.4	900
46.68	600
46.96	300
47.24	450
47.52	750
47.8	525
48.08	450
48.36	300
48.64	600
48.92	825
49.2	675
49.48	300
49.76	600
50.04	225
50.32	600
50.6	225
50.88	600
51.16	300
51.44	300
51.72	300
52	675
52.28	225
52.56	300
52.84	375
53.12	375
53.4	600
53.68	300
53.96	375
54.24	300
54.52	675
54.8	450
55.08	375
55.36	675
55.64	450
55.92	150
56.2	300
56.48	600
56.76	1125
57.04	1200
57.32	375
57.6	675
57.88	150
58.16	675
58.44	450
58.72	450
59	300
59.28	600
59.56	600
59.84	225
60.12	375
60.4	600
60.68	375
60.96	375
61.24	150
61.52	300
61.8	675
62.08	675
62.36	975
62.64	1275
62.92	600
63.2	150
63.48	375
63.76	300
64.04	525
64.32	675
64.6	825
64.88	300
65.16	300
65.44	225
65.72	375
66	300
66.28	450
66.56	150
66.84	300
67.12	225
67.4	225
67.68	375
67.96	225
68.24	150
68.52	375
68.8	450
69.08	75
69.36	375
69.64	75
69.92	375
70.2	600
70.48	375
70.76	675
71.04	375
71.32	150
71.6	225
71.88	525
72.16	375
72.44	450
72.72	450
73	300
73.28	600
73.56	600
73.84	375
74.12	525
74.4	300
74.68	375
74.96	525
75.24	450
75.52	300
75.8	300
76.08	375
76.36	375
76.64	525
76.92	225
77.2	225
77.48	450
77.76	300
78.04	450
78.32	75
78.6	225
78.88	825
79.16	450
79.44	375
79.72	225
80	375
80.28	525
80.56	150
80.84	150
81.12	150
81.4	450
81.68	450
81.96	450
82.24	450
82.52	375
82.8	675
83.08	375
83.36	450
83.64	300
83.92	675
84.2	600
84.48	675
84.76	450
85.04	375
85.32	75
85.6	375
85.88	375
86.16	150
86.44	150
86.72	300
87	375
87.28	150
87.56	450
87.84	150
88.12	225
88.4	225
88.68	300
88.96	300
89.24	225
89.52	375
89.8	375
90	225