File: 数据/xrd/20230405/cnts.txt
10.0000   111
10.2998   113
10.5998   102
10.8998   80
11.1998   88
11.4998   100
11.7998   98
12.0998   92
12.3998   104
12.6998   85
12.9998   72
13.2998   103
13.5998   92
13.8998   93
14.1998   77
14.4998   78
14.7998   69
15.0998   76
15.3998   88
15.6998   86
15.9998   76
16.2998   77
16.5998   86
16.8998   72
17.1998   85
17.4998   94
17.7998   86
18.0998   83
18.3998   100
18.6998   100
18.9998   91
19.2998   95
19.5998   102
19.8998   109
20.1996   111
20.4996   104
20.7996   121
21.0996   109
21.3996   143
21.6996   125
21.9996   171
22.2996   135
22.5996   178
22.8996   184
23.1996   229
23.4996   227
23.7996   249
24.0996   314
24.3996   322
24.6996   415
24.9996   483
25.2996   476
25.5996   554
25.8996   532
26.1996   511
26.4996   437
26.7996   321
27.0996   274
27.3996   226
27.6996   169
27.9996   155
28.2996   146
28.5996   122
28.8996   113
29.1996   97
29.4996   97
29.7996   83
30.0996   99
30.3995   97
30.6994   103
30.9994   87
31.2994   106
31.5994   85
31.8994   80
32.1994   78
32.4994   80
32.7994   72
33.0994   72
33.3994   76
33.6994   69
33.9994   91
34.2994   73
34.5994   59
34.8994   47
35.1994   54
35.4994   79
35.7994   65
36.0994   72
36.3994   62
36.6994   54
36.9994   59
37.2994   56
37.5994   54
37.8994   47
38.1994   43
38.4994   53
38.7994   50
39.0994   56
39.3994   50
39.6994   56
39.9994   49
40.2994   54
40.5992   43
40.8992   58
41.1992   71
41.4992   62
41.7992   75
42.0992   94
42.3992   80
42.6992   119
42.9992   97
43.2992   104
43.5992   121
43.8992   81
44.1992   76
44.4992   68
44.7992   84
45.0992   76
45.3992   76
45.6992   69
45.9992   71
46.2992   73
46.5992   71
46.8992   61
47.1992   66
47.4992   53
47.7992   65
48.0992   59
48.3992   61
48.6992   49
48.9992   53
49.2992   53
49.5992   58
49.8992   66
50.1992   60
50.4990   60
50.7990   49
51.0990   49
51.3990   62
51.6990   42
51.9990   58
52.2990   62
52.5990   66
52.8990   64
53.1990   78
53.4990   60
53.7990   62
54.0990   54
54.3990   59
54.6990   59
54.9990   39
55.2990   42
55.5990   60
55.8990   45
56.1990   50
56.4990   52
56.7990   65
57.0990   45
57.3990   52
57.6990   51
57.9990   43
58.2990   44
58.5990   58
58.8990   38
59.1990   45
59.4990   39
59.7990   39
60.0990   42
60.3990   43
60.6988   39
60.9988   53
61.2988   33
61.5988   40
61.8988   42
62.1988   39
62.4988   42
62.7988   47
63.0988   51
63.3988   41
63.6988   54
63.9988   44
64.2988   43
64.5988   43
64.8988   45
65.1988   57
65.4988   48
65.7988   48
66.0988   53
66.3988   45
66.6988   43
66.9988   35
67.2988   46
67.5988   32
67.8988   27
68.1988   38
68.4988   29
68.7988   30
69.0988   31
69.3988   34
69.6988   45
69.9988   29
70.2988   33
70.5986   47
70.8986   37
71.1986   42
71.4986   34
71.7986   33
72.0986   34
72.3986   42
72.6986   28
72.9986   38
73.2986   32
73.5986   45
73.8986   26
74.1986   34
74.4986   36
74.7986   25
75.0986   30
75.3986   31
75.6986   33
75.9986   36
76.2986   37
76.5986   30
76.8986   31
77.1986   29
77.4986   45
77.7986   34
78.0986   32
78.3986   36
78.6986   48
78.9986   34
79.2986   46
79.5986   36
79.8986   30
80.1986   39
80.4985   29
80.7984   44
81.0984   32
81.3984   45
81.6984   35
81.9984   35
82.2984   28
82.5984   31
82.8984   45
83.1984   28
83.4984   31
83.7984   32
84.0984   24
84.3984   30
84.6984   33
84.9984   24
85.2984   30
85.5984   32
85.8984   32
86.1984   34
86.4984   21
86.7984   31
87.0984   27
87.3984   26
87.6984   34
87.9984   23
88.2984   26
88.5984   33
88.8984   25
89.1984   20
89.4984   34
89.7984   35
89.9984   22