File: 数据/xrd/20230405/cnts-fe2o3.txt
10.0000   43
10.2998   46
10.5998   52
10.8998   40
11.1998   34
11.4998   35
11.7998   32
12.0998   52
12.3998   30
12.6998   34
12.9998   19
13.2998   32
13.5998   23
13.8998   28
14.1998   47
14.4998   33
14.7998   20
15.0998   32
15.3998   27
15.6998   24
15.9998   32
16.2998   27
16.5998   27
16.8998   31
17.1998   34
17.4998   29
17.7998   30
18.0998   31
18.3998   35
18.6998   28
18.9998   30
19.2998   25
19.5998   23
19.8998   24
20.1996   21
20.4996   19
20.7996   32
21.0996   22
21.3996   32
21.6996   40
21.9996   38
22.2996   25
22.5996   31
22.8996   42
23.1996   38
23.4996   34
23.7996   49
24.0996   55
24.3996   82
24.6996   84
24.9996   84
25.2996   119
25.5996   127
25.8996   134
26.1996   138
26.4996   117
26.7996   110
27.0996   81
27.3996   76
27.6996   84
27.9996   80
28.2996   65
28.5996   65
28.8996   63
29.1996   51
29.4996   42
29.7996   44
30.0994   26
30.3994   39
30.6994   60
30.9994   52
31.2994   41
31.5994   42
31.8994   45
32.1994   49
32.4994   48
32.7994   44
33.0994   85
33.3994   104
33.6994   58
33.9994   52
34.2994   48
34.5994   40
34.8994   41
35.1994   50
35.4994   91
35.7994   146
36.0994   134
36.3994   93
36.6994   62
36.9994   73
37.2994   44
37.5994   33
37.8994   25
38.1994   30
38.4994   17
38.7994   26
39.0994   35
39.3994   35
39.6994   39
39.9992   28
40.2992   34
40.5992   30
40.8992   43
41.1992   48
41.4992   37
41.7992   28
42.0992   26
42.3992   35
42.6992   30
42.9992   40
43.2992   30
43.5992   29
43.8992   34
44.1992   31
44.4992   26
44.7992   19
45.0992   23
45.3992   11
45.6992   24
45.9992   34
46.2992   23
46.5992   25
46.8992   35
47.1992   26
47.4992   28
47.7992   19
48.0992   26
48.3992   32
48.6992   25
48.9992   30
49.2992   42
49.5992   38
49.8991   34
50.1990   25
50.4990   28
50.7990   17
51.0990   26
51.3990   21
51.6990   20
51.9990   18
52.2990   26
52.5990   23
52.8990   31
53.1990   30
53.4990   26
53.7990   32
54.0990   42
54.3990   47
54.6990   37
54.9990   30
55.2990   22
55.5990   22
55.8990   36
56.1990   44
56.4990   59
56.7990   58
57.0990   42
57.3990   29
57.6990   26
57.9990   27
58.2990   30
58.5990   25
58.8990   20
59.1990   31
59.4990   24
59.7990   20
60.0988   24
60.3988   37
60.6988   21
60.9988   30
61.2988   26
61.5988   18
61.8988   20
62.1988   45
62.4988   35
62.7988   34
63.0988   42
63.3988   29
63.6988   26
63.9988   33
64.2988   43
64.5988   33
64.8988   35
65.1988   32
65.4988   27
65.7988   18
66.0988   20
66.3988   19
66.6988   17
66.9988   19
67.2988   19
67.5988   12
67.8988   17
68.1988   26
68.4988   14
68.7988   16
69.0988   11
69.3988   23
69.6988   23
69.9988   15
70.2986   18
70.5986   9
70.8986   18
71.1986   16
71.4986   9
71.7986   6
72.0986   19
72.3986   16
72.6986   20
72.9986   12
73.2986   16
73.5986   11
73.8986   10
74.1986   7
74.4986   13
74.7986   20
75.0986   18
75.3986   11
75.6986   19
75.9986   8
76.2986   14
76.5986   11
76.8986   10
77.1986   14
77.4986   19
77.7986   16
78.0986   14
78.3986   12
78.6986   17
78.9986   17
79.2986   14
79.5986   11
79.8986   16
80.1985   15
80.4984   24
80.7984   12
81.0984   17
81.3984   13
81.6984   6
81.9984   14
82.2984   11
82.5984   10
82.8984   14
83.1984   12
83.4984   9
83.7984   14
84.0984   12
84.3984   15
84.6984   17
84.9984   10
85.2984   25
85.5984   18
85.8984   15
86.1984   14
86.4984   9
86.7984   12
87.0984   19
87.3984   16
87.6984   15
87.9984   13
88.2984   21
88.5984   12
88.8984   17
89.1984   9
89.4984   11
89.7984   9
89.9984   12