File: 数据/xrd/20230405/中间体.txt
10.0000   55
10.2998   29
10.5998   35
10.8998   40
11.1998   48
11.4998   39
11.7998   123
12.0998   598
12.3998   53
12.6998   33
12.9998   41
13.2998   28
13.5998   35
13.8998   31
14.1998   32
14.4998   27
14.7998   34
15.0998   24
15.3998   17
15.6998   21
15.9998   28
16.2998   28
16.5998   34
16.8998   138
17.1998   137
17.4998   35
17.7998   31
18.0998   19
18.3998   20
18.6998   24
18.9998   20
19.2998   19
19.5998   18
19.8998   18
20.1996   10
20.4996   8
20.7996   17
21.0996   19
21.3996   11
21.6996   14
21.9996   19
22.2996   20
22.5996   14
22.8996   15
23.1996   15
23.4996   19
23.7996   19
24.0996   29
24.3996   15
24.6996   12
24.9996   18
25.2996   16
25.5996   12
25.8996   16
26.1996   16
26.4996   35
26.7996   53
27.0996   761
27.3996   45
27.6996   32
27.9996   13
28.2996   16
28.5996   13
28.8996   15
29.1996   18
29.4996   13
29.7996   16
30.0994   9
30.3994   13
30.6994   17
30.9994   22
31.2994   21
31.5994   13
31.8994   15
32.1994   12
32.4994   6
32.7994   12
33.0994   20
33.3994   25
33.6994   14
33.9994   29
34.2994   77
34.5994   97
34.8994   26
35.1994   59
35.4994   591
35.7994   60
36.0994   17
36.3994   21
36.6994   43
36.9994   13
37.2994   9
37.5994   11
37.8994   19
38.1994   12
38.4994   26
38.7994   22
39.0994   21
39.3994   57
39.6994   70
39.9993   7
40.2992   15
40.5992   8
40.8992   29
41.1992   11
41.4992   8
41.7992   7
42.0992   5
42.3992   12
42.6992   12
42.9992   15
43.2992   100
43.5992   14
43.8992   15
44.1992   38
44.4992   18
44.7992   13
45.0992   12
45.3992   15
45.6992   6
45.9992   11
46.2992   13
46.5992   34
46.8992   226
47.1992   20
47.4992   16
47.7992   11
48.0992   7
48.3992   7
48.6992   14
48.9992   10
49.2992   21
49.5992   43
49.8992   13
50.1990   9
50.4990   10
50.7990   9
51.0990   11
51.3990   5
51.6990   13
51.9990   7
52.2990   10
52.5990   116
52.8990   31
53.1990   21
53.4990   46
53.7990   8
54.0990   35
54.3990   8
54.6990   14
54.9990   12
55.2990   11
55.5990   13
55.8990   20
56.1990   38
56.4990   244
56.7990   24
57.0990   10
57.3990   17
57.6990   12
57.9990   12
58.2990   4
58.5990   5
58.8990   2
59.1990   6
59.4990   7
59.7990   8
60.0988   6
60.3988   9
60.6988   9
60.9988   6
61.2988   96
61.5988   19
61.8988   15
62.1988   52
62.4988   36
62.7988   27
63.0988   48
63.3988   15
63.6988   13
63.9988   14
64.2988   44
64.5988   21
64.8988   67
65.1988   100
65.4988   12
65.7988   10
66.0988   10
66.3988   6
66.6988   12
66.9988   9
67.2988   12
67.5988   13
67.8988   10
68.1988   82
68.4988   71
68.7988   18
69.0988   7
69.3988   11
69.6988   4
69.9986   6
70.2986   12
70.5986   8
70.8986   11
71.1986   7
71.4986   4
71.7986   9
72.0986   29
72.3986   24
72.6986   5
72.9986   10
73.2986   7
73.5986   15
73.8986   8
74.1986   7
74.4986   8
74.7986   10
75.0986   13
75.3986   6
75.6986   7
75.9986   5
76.2986   5
76.5986   5
76.8986   9
77.1986   4
77.4986   7
77.7986   10
78.0986   32
78.3986   24
78.6986   19
78.9986   12
79.2986   5
79.5986   3
79.8985   8
80.1984   5
80.4984   10
80.7984   15
81.0984   6
81.3984   5
81.6984   3
81.9984   4
82.2984   4
82.5984   7
82.8984   11
83.1984   7
83.4984   7
83.7984   10
84.0984   13
84.3984   10
84.6984   11
84.9984   36
85.2984   10
85.5984   11
85.8984   7
86.1984   6
86.4984   6
86.7984   2
87.0984   4
87.3984   6
87.6984   8
87.9984   6
88.2984   9
88.5984   8
88.8984   12
89.1984   6
89.4984   6
89.7983   3
89.9982   6